Model,DPO4104B
Firmware Version,1.38

Waveform Type,Analog,Analog,Analog,Analog
Point Format,Y,,,
Horizontal Units,s,,,
Horizontal Scale,4e-09,,,
Horizontal Delay,6.7e-08,6.7e-08,6.7e-08,6.7e-08
Sample Interval,2e-10,,,
Record Length,1000,,,
Gating,0.0% to 100.0%,0.0% to 100.0%,0.0% to 100.0%,0.0% to 100.0%
Probe Attenuation,1,1,1,1
Vertical Units,V,V,V,V
Vertical Offset,0,0,0,0
Vertical Scale,0.1,0.1,0.1,0.1
Vertical Position,-3.9,-3.94,-3.98,-4.04
Label,,,,
TIME,CH1,CH2,CH3,CH4
-3.300e-08,-0.0127344,-0.009875,-0.00765625,0.00240625
-3.280e-08,-0.0123906,-0.00989062,-0.00775,0.0026875
-3.260e-08,-0.0126719,-0.00998437,-0.00775,0.00242188
-3.240e-08,-0.0125781,-0.00979687,-0.00778125,0.00267187
-3.220e-08,-0.0125625,-0.0100156,-0.00809375,0.00264063
-3.200e-08,-0.0128437,-0.0100781,-0.00776562,0.00285937
-3.180e-08,-0.0126094,-0.00990625,-0.00785938,0.0024375
-3.160e-08,-0.0130625,-0.0101406,-0.00746875,0.00271875
-3.140e-08,-0.0124844,-0.010125,-0.00796875,0.0023125
-3.120e-08,-0.0127031,-0.0100625,-0.00754688,0.00278125
-3.100e-08,-0.0125781,-0.0104063,-0.00796875,0.002125
-3.080e-08,-0.0127813,-0.0102031,-0.007875,0.00245313
-3.060e-08,-0.0124687,-0.009375,-0.00795313,0.0025
-3.040e-08,-0.0127813,-0.0096875,-0.00792187,0.0025625
-3.020e-08,-0.01275,-0.0102031,-0.0079375,0.0026875
-3.000e-08,-0.0128437,-0.0100469,-0.00784375,0.0025625
-2.980e-08,-0.0126562,-0.0100312,-0.00792187,0.00223438
-2.960e-08,-0.0125781,-0.0103125,-0.00784375,0.00264063
-2.940e-08,-0.0124844,-0.0103437,-0.00773438,0.00242188
-2.920e-08,-0.0126875,-0.0101719,-0.00767187,0.00289063
-2.900e-08,-0.0125469,-0.00970312,-0.0074375,0.00309375
-2.880e-08,-0.0125312,-0.00979687,-0.00795313,0.00226562
-2.860e-08,-0.01275,-0.0100156,-0.00792187,0.00259375
-2.840e-08,-0.0126094,-0.00982812,-0.00803125,0.00257813
-2.820e-08,-0.0126562,-0.0099375,-0.00820312,0.002375
-2.800e-08,-0.0127813,-0.0101562,-0.008,0.00232813
-2.780e-08,-0.0125156,-0.0094375,-0.0076875,0.00309375
-2.760e-08,-0.0131094,-0.0101875,-0.008,0.0025625
-2.740e-08,-0.0126719,-0.0100781,-0.0080625,0.00251563
-2.720e-08,-0.0126406,-0.0101562,-0.00775,0.00270313
-2.700e-08,-0.0123281,-0.00982812,-0.00798437,0.00282813
-2.680e-08,-0.0125,-0.0096875,-0.00795313,0.00245313
-2.660e-08,-0.0128125,-0.00976562,-0.00792187,0.00228125
-2.640e-08,-0.0125625,-0.0098125,-0.0078125,0.00257813
-2.620e-08,-0.0126562,-0.0099375,-0.00817187,0.00264063
-2.600e-08,-0.0123437,-0.00984375,-0.0080625,0.002625
-2.580e-08,-0.0125625,-0.0101562,-0.00817187,0.00264063
-2.560e-08,-0.0129375,-0.00995313,-0.00784375,0.002875
-2.540e-08,-0.0125312,-0.0100938,-0.00804688,0.00229688
-2.520e-08,-0.0130312,-0.00998437,-0.00771875,0.00265625
-2.500e-08,-0.0125469,-0.0100312,-0.00823437,0.00229688
-2.480e-08,-0.0128906,-0.0101094,-0.00773438,0.00259375
-2.460e-08,-0.0127344,-0.0102187,-0.00779687,0.00228125
-2.440e-08,-0.0126094,-0.0102344,-0.00751562,0.00282813
-2.420e-08,-0.012375,-0.00928125,-0.00782812,0.00259375
-2.400e-08,-0.0127031,-0.0095625,-0.007625,0.00257813
-2.380e-08,-0.0129531,-0.00985938,-0.00748437,0.00242188
-2.360e-08,-0.0128281,-0.0100312,-0.00773438,0.00234375
-2.340e-08,-0.0127656,-0.0100625,-0.00789062,0.00254688
-2.320e-08,-0.0125156,-0.0100156,-0.00753125,0.0025
-2.300e-08,-0.0123281,-0.0104531,-0.0076875,0.002375
-2.280e-08,-0.0128281,-0.00967187,-0.0076875,0.00242188
-2.260e-08,-0.0128281,-0.009625,-0.00753125,0.00276562
-2.240e-08,-0.0124375,-0.0094375,-0.0080625,0.00225
-2.220e-08,-0.0129063,-0.00964063,-0.00790625,0.00270313
-2.200e-08,-0.0126094,-0.00965625,-0.0078125,0.00260938
-2.180e-08,-0.012375,-0.0102031,-0.0079375,0.00225
-2.160e-08,-0.0126719,-0.0101562,-0.0079375,0.002375
-2.140e-08,-0.0124219,-0.00953125,-0.00753125,0.00292188
-2.120e-08,-0.0127031,-0.0102812,-0.007875,0.00259375
-2.100e-08,-0.0127344,-0.0102344,-0.00792187,0.00235937
-2.080e-08,-0.0123906,-0.0101562,-0.0079375,0.00267187
-2.060e-08,-0.0124375,-0.00996875,-0.0078125,0.00292188
-2.040e-08,-0.0122188,-0.00953125,-0.00778125,0.00290625
-2.020e-08,-0.0127969,-0.0100312,-0.00782812,0.00248438
-2.000e-08,-0.012375,-0.00976562,-0.00770312,0.00265625
-1.980e-08,-0.0126562,-0.0100625,-0.00801562,0.0025625
-1.960e-08,-0.01225,-0.00978125,-0.00790625,0.002625
-1.940e-08,-0.0126094,-0.0099375,-0.00792187,0.00257813
-1.920e-08,-0.0129063,-0.01,-0.00771875,0.00289063
-1.900e-08,-0.012625,-0.0099375,-0.00779687,0.00282813
-1.880e-08,-0.0126562,-0.010125,-0.00779687,0.00290625
-1.860e-08,-0.0122656,-0.0101562,-0.00798437,0.00229688
-1.840e-08,-0.0126562,-0.0101719,-0.0078125,0.00265625
-1.820e-08,-0.0126719,-0.0103594,-0.00770312,0.0025625
-1.800e-08,-0.0126406,-0.0102656,-0.00784375,0.00290625
-1.780e-08,-0.0122344,-0.00951562,-0.00789062,0.00285937
-1.760e-08,-0.0128594,-0.0096875,-0.00790625,0.0026875
-1.740e-08,-0.0129063,-0.0103125,-0.00764063,0.0025
-1.720e-08,-0.0127344,-0.0100938,-0.00807812,0.0025625
-1.700e-08,-0.0127344,-0.0102812,-0.00807812,0.00235937
-1.680e-08,-0.01225,-0.0100938,-0.00792187,0.0025625
-1.660e-08,-0.012375,-0.0102031,-0.00785938,0.00235937
-1.640e-08,-0.0125,-0.0095,-0.00790625,0.0026875
-1.620e-08,-0.0125469,-0.00976562,-0.00782812,0.00276562
-1.600e-08,-0.0124063,-0.00951562,-0.0079375,0.00223438
-1.580e-08,-0.0127813,-0.00989062,-0.00776562,0.00251563
-1.560e-08,-0.0127188,-0.00967187,-0.00782812,0.00264063
-1.540e-08,-0.0125938,-0.010125,-0.00773438,0.00245313
-1.520e-08,-0.0128281,-0.0101562,-0.00790625,0.00234375
-1.500e-08,-0.0124687,-0.00940625,-0.00753125,0.00279688
-1.480e-08,-0.0130312,-0.0100156,-0.00776562,0.002375
-1.460e-08,-0.0125469,-0.00998437,-0.007625,0.00235937
-1.440e-08,-0.0124844,-0.0101562,-0.00759375,0.00251563
-1.420e-08,-0.0124063,-0.0102344,-0.007625,0.00265625
-1.400e-08,-0.0123437,-0.00957812,-0.00775,0.00267187
-1.380e-08,-0.0127344,-0.00984375,-0.00782812,0.00259375
-1.360e-08,-0.0123594,-0.00982812,-0.00764063,0.00257813
-1.340e-08,-0.0124687,-0.0101094,-0.00789062,0.00253125
-1.320e-08,-0.0124687,-0.00978125,-0.00775,0.00276562
-1.300e-08,-0.0124844,-0.00985938,-0.00779687,0.002625
-1.280e-08,-0.0130312,-0.00995313,-0.00734375,0.0028125
-1.260e-08,-0.0126094,-0.00979687,-0.00767187,0.00253125
-1.240e-08,-0.0129375,-0.0100938,-0.0075625,0.00271875
-1.220e-08,-0.0125625,-0.00989062,-0.0078125,0.00254688
-1.200e-08,-0.0128594,-0.0100156,-0.00776562,0.00279688
-1.180e-08,-0.0125312,-0.0103125,-0.00782812,0.0025
-1.160e-08,-0.012625,-0.0102969,-0.00775,0.00282813
-1.140e-08,-0.012375,-0.00907812,-0.007875,0.0025625
-1.120e-08,-0.0125781,-0.00978125,-0.00771875,0.00257813
-1.100e-08,-0.0127656,-0.0100156,-0.00778125,0.00240625
-1.080e-08,-0.0128125,-0.0102187,-0.00790625,0.0025625
-1.060e-08,-0.0126875,-0.010125,-0.0079375,0.00223438
-1.040e-08,-0.0125781,-0.0098125,-0.00776562,0.00259375
-1.020e-08,-0.0124219,-0.00984375,-0.00801562,0.00251563
-1.000e-08,-0.0125938,-0.0100469,-0.00825,0.00246875
-9.800e-09,-0.0126562,-0.00984375,-0.0074375,0.002875
-9.600e-09,-0.0124531,-0.00960937,-0.00771875,0.002375
-9.400e-09,-0.0129687,-0.0100469,-0.0079375,0.00253125
-9.200e-09,-0.0127813,-0.00973438,-0.008,0.00248438
-9.000e-09,-0.01275,-0.0101094,-0.008,0.0023125
-8.800e-09,-0.0126406,-0.0100156,-0.008,0.00251563
-8.600e-09,-0.0124063,-0.00964063,-0.00765625,0.00296875
-8.400e-09,-0.0131094,-0.0105156,-0.00784375,0.00228125
-8.200e-09,-0.0127969,-0.0101719,-0.00775,0.00253125
-8.000e-09,-0.012375,-0.0103906,-0.0076875,0.00242188
-7.800e-09,-0.012375,-0.010375,-0.00765625,0.00289063
-7.600e-09,-0.0124531,-0.009875,-0.00765625,0.00273438
-7.400e-09,-0.0125156,-0.0100938,-0.0076875,0.00253125
-7.200e-09,-0.01225,-0.0100469,-0.00751562,0.0026875
-7.000e-09,-0.0125625,-0.00996875,-0.00782812,0.00284375
-6.800e-09,-0.0125156,-0.00985938,-0.0075625,0.00267187
-6.600e-09,-0.0126719,-0.0100781,-0.00770312,0.002625
-6.400e-09,-0.0127344,-0.00979687,-0.00764063,0.00310938
-6.200e-09,-0.0122344,-0.0098125,-0.0076875,0.00284375
-6.000e-09,-0.013,-0.0101562,-0.00790625,0.00276562
-5.800e-09,-0.0125938,-0.0100312,-0.00776562,0.00239063
-5.600e-09,-0.0128437,-0.01,-0.0075625,0.00273438
-5.400e-09,-0.0127813,-0.0104375,-0.00782812,0.00242188
-5.200e-09,-0.0129219,-0.0102344,-0.00779687,0.0025625
-5.000e-09,-0.0124219,-0.00965625,-0.00767187,0.00275
-4.800e-09,-0.0128281,-0.00971875,-0.007625,0.0025625
-4.600e-09,-0.0128125,-0.0102656,-0.00779687,0.00259375
-4.400e-09,-0.0125156,-0.0100469,-0.00782812,0.00265625
-4.200e-09,-0.0128594,-0.0101094,-0.008,0.00242188
-4.000e-09,-0.0125625,-0.0100156,-0.00775,0.00259375
-3.800e-09,-0.0124844,-0.0103906,-0.00796875,0.00229688
-3.600e-09,-0.0127188,-0.0102969,-0.00795313,0.00259375
-3.400e-09,-0.0125781,-0.00960937,-0.00767187,0.00292188
-3.200e-09,-0.0125781,-0.00970312,-0.00770312,0.00235937
-3.000e-09,-0.0128906,-0.0099375,-0.00773438,0.00242188
-2.800e-09,-0.0130156,-0.00979687,-0.00784375,0.00257813
-2.600e-09,-0.0126719,-0.0103906,-0.00767187,0.0024375
-2.400e-09,-0.0125938,-0.0101875,-0.00796875,0.0025625
-2.200e-09,-0.0122344,-0.00951562,-0.00753125,0.00307813
-2.000e-09,-0.01275,-0.0102656,-0.00785938,0.00254688
-1.800e-09,-0.01275,-0.0103437,-0.00779687,0.00239063
-1.600e-09,-0.0125469,-0.0103125,-0.00789062,0.00253125
-1.400e-09,-0.0124531,-0.0101562,-0.0078125,0.00278125
-1.200e-09,-0.0123594,-0.00975,-0.00765625,0.00278125
-1.000e-09,-0.0128906,-0.0101094,-0.007625,0.00232813
-8.000e-10,-0.0122969,-0.0099375,-0.00745313,0.00240625
-6.000e-10,-0.0124844,-0.0100312,-0.00753125,0.00259375
-4.000e-10,-0.0123125,-0.009875,-0.00759375,0.00271875
-2.000e-10,-0.0127656,-0.0105156,-0.00773438,0.00254688
-0.000e+00,-0.0130625,-0.0101094,-0.00765625,0.00282813
2.000e-10,-0.0125938,-0.0100156,-0.00778125,0.0025
4.000e-10,-0.0130469,-0.00985938,-0.00798437,0.00254688
6.000e-10,-0.0124531,-0.00995313,-0.00771875,0.00234375
8.000e-10,-0.0127969,-0.0100469,-0.0074375,0.00282813
1.000e-09,-0.0127188,-0.0103906,-0.00779687,0.00251563
1.200e-09,-0.0127031,-0.0102812,-0.00771875,0.00239063
1.400e-09,-0.0124844,-0.0095,-0.00807812,0.00251563
1.600e-09,-0.0128906,-0.00989062,-0.00775,0.002625
1.800e-09,-0.0129063,-0.0101406,-0.00765625,0.0025
2.000e-09,-0.012875,-0.0100469,-0.008,0.0026875
2.200e-09,-0.0127188,-0.0100156,-0.00796875,0.00260938
2.400e-09,-0.012375,-0.01,-0.00764063,0.00265625
2.600e-09,-0.01225,-0.00985938,-0.00782812,0.00220313
2.800e-09,-0.0125,-0.0101094,-0.00778125,0.00248438
3.000e-09,-0.01275,-0.00967187,-0.00746875,0.00275
3.200e-09,-0.0125156,-0.00953125,-0.00785938,0.00228125
3.400e-09,-0.0126406,-0.00965625,-0.00721875,0.00257813
3.600e-09,-0.0124687,-0.00984375,-0.00660937,0.0030625
3.800e-09,-0.0117344,-0.008875,-0.00614063,0.0031875
4.000e-09,-0.0102969,-0.00726562,-0.00289062,0.0048125
4.200e-09,-0.00578125,-0.00196875,0.00526562,0.00820313
4.400e-09,0.00246875,0.00960938,0.0237656,0.0152969
4.600e-09,0.0242813,0.040375,0.0657969,0.0377656
4.800e-09,0.067125,0.102687,0.142063,0.0871719
5.000e-09,0.142297,0.203844,0.255125,0.174328
5.200e-09,0.251656,0.335203,0.391188,0.298484
5.400e-09,0.381,0.47625,0.526672,0.442359
5.600e-09,0.509125,0.606297,0.641328,0.582391
5.800e-09,0.619281,0.708859,0.728094,0.698625
6.000e-09,0.7055,0.777984,0.78675,0.779938
6.200e-09,0.765969,0.809359,0.814328,0.820359
6.400e-09,0.799172,0.802891,0.812078,0.821578
6.600e-09,0.806781,0.764188,0.783359,0.786531
6.800e-09,0.78925,0.701047,0.733375,0.7225
7.000e-09,0.749734,0.620547,0.667813,0.638281
7.200e-09,0.692594,0.531594,0.593906,0.543078
7.400e-09,0.624828,0.441578,0.517703,0.446281
7.600e-09,0.552578,0.356094,0.443281,0.354875
7.800e-09,0.481281,0.280906,0.371859,0.275938
8.000e-09,0.411219,0.216469,0.305453,0.210328
8.200e-09,0.346,0.164469,0.246297,0.159391
8.400e-09,0.286453,0.126141,0.194297,0.122141
8.600e-09,0.233063,0.0987031,0.149563,0.0942969
8.800e-09,0.183391,0.0788437,0.111125,0.0734688
9.000e-09,0.137781,0.0642813,0.0774219,0.0568594
9.200e-09,0.0972188,0.0534375,0.0489375,0.0430156
9.400e-09,0.061375,0.0455313,0.0254844,0.0325938
9.600e-09,0.0307812,0.0396094,0.00776562,0.0259375
9.800e-09,0.00653125,0.0361094,-0.00445313,0.0230938
1.000e-08,-0.0101875,0.0352031,-0.0111875,0.0241719
1.020e-08,-0.0200313,0.0361094,-0.0147188,0.0274531
1.040e-08,-0.0248125,0.0366406,-0.0156094,0.0324687
1.060e-08,-0.0252812,0.0352188,-0.0159063,0.0361563
1.080e-08,-0.02475,0.028875,-0.0175781,0.0349844
1.100e-08,-0.0222344,0.0201875,-0.0180156,0.0308906
1.120e-08,-0.01925,0.0095,-0.0181562,0.0234844
1.140e-08,-0.01625,-9.375e-05,-0.0164219,0.0155
1.160e-08,-0.0134375,-0.00825,-0.0132031,0.0078125
1.180e-08,-0.0104687,-0.0140312,-0.00820312,0.00120313
1.200e-08,-0.00573438,-0.01525,-0.00059375,-0.00254688
1.220e-08,0.000734375,-0.013875,0.00840625,-0.00395313
1.240e-08,0.0095625,-0.0104844,0.0193281,-0.00296875
1.260e-08,0.020375,-0.00589062,0.0303438,-0.00075
1.280e-08,0.0318594,-0.00096875,0.0409844,0.00392188
1.300e-08,0.0419687,0.00451563,0.0483438,0.00821875
1.320e-08,0.0492344,0.0090625,0.0529375,0.01225
1.340e-08,0.0526094,0.0131094,0.0540625,0.0160938
1.360e-08,0.0525781,0.0150781,0.0516406,0.0186406
1.380e-08,0.0482656,0.0162969,0.0451875,0.0189844
1.400e-08,0.0415469,0.0165,0.0362031,0.0182813
1.420e-08,0.0314687,0.0146562,0.0264219,0.01725
1.440e-08,0.0204063,0.0107187,0.0143594,0.0148125
1.460e-08,0.00842188,0.006125,0.00201563,0.0116406
1.480e-08,-0.00367187,0.0015625,-0.00826562,0.00884375
1.500e-08,-0.0142188,-0.00221875,-0.0173125,0.006125
1.520e-08,-0.0242656,-0.00557812,-0.0243281,0.0029375
1.540e-08,-0.03275,-0.0076875,-0.028125,9.375e-05
1.560e-08,-0.0385,-0.00903125,-0.0295,-0.00245313
1.580e-08,-0.0413125,-0.009625,-0.0282969,-0.00384375
1.600e-08,-0.0423125,-0.0102812,-0.0245,-0.004125
1.620e-08,-0.0407344,-0.0095625,-0.0208437,-0.00365625
1.640e-08,-0.0376563,-0.00870312,-0.0162656,-0.00134375
1.660e-08,-0.0324844,-0.0069375,-0.0108125,0.001375
1.680e-08,-0.0255469,-0.00420312,-0.00495313,0.00514063
1.700e-08,-0.017125,-0.00140625,0.0004375,0.00854688
1.720e-08,-0.00957812,9.375e-05,0.0046875,0.0103281
1.740e-08,-0.000953125,0.00170313,0.00973438,0.0115
1.760e-08,0.00604688,0.00275,0.013875,0.01175
1.780e-08,0.012375,0.00290625,0.0176563,0.0112031
1.800e-08,0.0168906,0.0018125,0.0199375,0.00960938
1.820e-08,0.0194375,-0.0008125,0.0203281,0.00764063
1.840e-08,0.0209531,-0.002875,0.0190781,0.00589063
1.860e-08,0.02,-0.00667187,0.0168594,0.00285937
1.880e-08,0.0180312,-0.0109844,0.0135781,-7.8125e-05
1.900e-08,0.014375,-0.0146875,0.00901563,-0.0033125
1.920e-08,0.0101875,-0.0179687,0.00304688,-0.00615625
1.940e-08,0.00395313,-0.0203281,-0.00184375,-0.0073125
1.960e-08,-0.00201563,-0.0208906,-0.00732812,-0.00782812
1.980e-08,-0.00784375,-0.019625,-0.0125156,-0.00620312
2.000e-08,-0.0134844,-0.0176094,-0.0170156,-0.00484375
2.020e-08,-0.0194687,-0.0149687,-0.0195781,-0.00310937
2.040e-08,-0.0245937,-0.0129219,-0.0214687,-0.001625
2.060e-08,-0.0284687,-0.00982812,-0.0211562,-0.000109375
2.080e-08,-0.0314844,-0.0090625,-0.0213125,0.000453125
2.100e-08,-0.0332656,-0.00825,-0.0201562,0.00059375
2.120e-08,-0.0330156,-0.008375,-0.018,0.00175
2.140e-08,-0.0315781,-0.00909375,-0.0152188,0.002875
2.160e-08,-0.0282812,-0.0099375,-0.0120312,0.00409375
2.180e-08,-0.0245156,-0.0114531,-0.00807812,0.0044375
2.200e-08,-0.0205313,-0.0115469,-0.00448437,0.00509375
2.220e-08,-0.0162031,-0.0112656,-0.00059375,0.0054375
2.240e-08,-0.0122969,-0.0116719,0.00257812,0.00515625
2.260e-08,-0.007625,-0.0109687,0.004625,0.00376562
2.280e-08,-0.00359375,-0.00996875,0.00698437,0.00182813
2.300e-08,0.0005625,-0.0101719,0.00825,-0.000390625
2.320e-08,0.0036875,-0.00998437,0.00859375,-0.00240625
2.340e-08,0.00739062,-0.0100469,0.00876562,-0.00348437
2.360e-08,0.00870312,-0.0117344,0.00598437,-0.0055
2.380e-08,0.00995313,-0.0125938,0.00370313,-0.0055625
2.400e-08,0.00939062,-0.0138906,0.001,-0.00490625
2.420e-08,0.00770313,-0.0141875,-0.00265625,-0.0033125
2.440e-08,0.00385937,-0.0135156,-0.00610937,-0.00123438
2.460e-08,-0.00090625,-0.0132969,-0.0102969,0.00103125
2.480e-08,-0.00626562,-0.0114063,-0.0137188,0.00396875
2.500e-08,-0.011875,-0.0096875,-0.0163906,0.00660938
2.520e-08,-0.0170469,-0.00728125,-0.0180312,0.00804688
2.540e-08,-0.0227969,-0.006375,-0.0197969,0.00839063
2.560e-08,-0.026625,-0.00590625,-0.0206875,0.00807812
2.580e-08,-0.0299531,-0.0061875,-0.0204219,0.00770313
2.600e-08,-0.0310625,-0.0078125,-0.0193281,0.00523438
2.620e-08,-0.0308281,-0.00964063,-0.018125,0.00390625
2.640e-08,-0.0295,-0.0113125,-0.0166406,0.00203125
2.660e-08,-0.0269063,-0.0126875,-0.014,0.00123438
2.680e-08,-0.0233281,-0.0137031,-0.0102812,0.000703125
2.700e-08,-0.0196875,-0.0131406,-0.00589062,0.00154688
2.720e-08,-0.0154063,-0.0133281,-0.00251562,0.00157813
2.740e-08,-0.0115938,-0.0118906,0.00167187,0.003
2.760e-08,-0.00770312,-0.00926562,0.00454688,0.00398438
2.780e-08,-0.00459375,-0.00732813,0.00790625,0.00471875
2.800e-08,-0.00071875,-0.00503125,0.00929688,0.0056875
2.820e-08,0.0009375,-0.00348437,0.00935938,0.0060625
2.840e-08,0.00270313,-0.00253125,0.00903125,0.0068125
2.860e-08,0.00309375,-0.00159375,0.00660938,0.00729688
2.880e-08,0.0025625,-0.0020625,0.00314063,0.00701563
2.900e-08,0.000859375,-0.00279687,-0.000828125,0.00760938
2.920e-08,-0.0014375,-0.00320312,-0.00553125,0.0076875
2.940e-08,-0.00417187,-0.00414063,-0.0102187,0.00764063
2.960e-08,-0.00640625,-0.00467187,-0.0138125,0.00742188
2.980e-08,-0.00890625,-0.00498437,-0.0165781,0.0076875
3.000e-08,-0.01175,-0.00653125,-0.0194219,0.00610938
3.020e-08,-0.0140625,-0.00679687,-0.0205937,0.00496875
3.040e-08,-0.0162656,-0.00703125,-0.0207031,0.00335937
3.060e-08,-0.0182969,-0.00770312,-0.0202656,0.00303125
3.080e-08,-0.0195781,-0.00823438,-0.0192031,0.00209375
3.100e-08,-0.0204687,-0.00889062,-0.0175469,0.0025
3.120e-08,-0.0212031,-0.00934375,-0.0149219,0.00307813
3.140e-08,-0.0215625,-0.00982812,-0.0125156,0.00389063
3.160e-08,-0.0212031,-0.00915625,-0.00925,0.00578125
3.180e-08,-0.0210781,-0.00870312,-0.00671875,0.00659375
3.200e-08,-0.0196875,-0.00753125,-0.00415625,0.00746875
3.220e-08,-0.0181406,-0.0063125,-0.00189062,0.00789063
3.240e-08,-0.0163437,-0.00598437,-0.00015625,0.00790625
3.260e-08,-0.0136562,-0.00446875,0.00104688,0.00828125
3.280e-08,-0.0110781,-0.00509375,0.00110938,0.00776562
3.300e-08,-0.00882813,-0.00554688,0.00145312,0.00689063
3.320e-08,-0.00654688,-0.006,0.00175,0.00617187
3.340e-08,-0.0046875,-0.00609375,0.00160938,0.00540625
3.360e-08,-0.00384375,-0.007375,0.000375,0.00301563
3.380e-08,-0.00315625,-0.00896875,-0.000609375,0.0020625
3.400e-08,-0.00295313,-0.00996875,-0.00204688,0.00123438
3.420e-08,-0.00384375,-0.0105938,-0.00367187,0.000890625
3.440e-08,-0.0046875,-0.0103281,-0.00496875,0.00096875
3.460e-08,-0.00635938,-0.0102656,-0.00725,0.000703125
3.480e-08,-0.007625,-0.00889062,-0.00896875,0.000734375
3.500e-08,-0.00985938,-0.00803125,-0.0112344,0.000703125
3.520e-08,-0.0121406,-0.00764063,-0.0137031,0.00123438
3.540e-08,-0.0138437,-0.00701562,-0.015875,0.00104688
3.560e-08,-0.0153906,-0.00678125,-0.0172969,0.00203125
3.580e-08,-0.0171406,-0.00782813,-0.0185156,0.00290625
3.600e-08,-0.017375,-0.008375,-0.018125,0.00398438
3.620e-08,-0.0171406,-0.009,-0.0168594,0.00539063
3.640e-08,-0.0175938,-0.0109219,-0.0157656,0.00534375
3.660e-08,-0.0164844,-0.0114375,-0.0135,0.00578125
3.680e-08,-0.0156094,-0.0120625,-0.0107031,0.00515625
3.700e-08,-0.0143906,-0.0124375,-0.007,0.00379688
3.720e-08,-0.013,-0.0128437,-0.00423438,0.00309375
3.740e-08,-0.0125938,-0.0131719,-0.00198437,0.0011875
3.760e-08,-0.0114219,-0.0134375,0.00040625,0.000234375
3.780e-08,-0.011,-0.013875,0.00120313,-0.00125
3.800e-08,-0.0100156,-0.0135625,0.00235937,-0.00214063
3.820e-08,-0.0104844,-0.0145781,0.001875,-0.0030625
3.840e-08,-0.00976562,-0.0145781,0.00190625,-0.0035
3.860e-08,-0.0098125,-0.0154375,0.000765625,-0.003375
3.880e-08,-0.01,-0.0154687,-0.00075,-0.00279687
3.900e-08,-0.00970312,-0.0155156,-0.00228125,-0.00204688
3.920e-08,-0.0101875,-0.0148906,-0.00495313,-0.00101562
3.940e-08,-0.0106875,-0.0143437,-0.006875,-0.000421875
3.960e-08,-0.0106875,-0.01275,-0.00901562,0.0005
3.980e-08,-0.0103437,-0.0116406,-0.0106875,0.00164063
4.000e-08,-0.0111094,-0.0101094,-0.0130781,0.00146875
4.020e-08,-0.0118125,-0.00910937,-0.0144531,0.002
4.040e-08,-0.0124219,-0.00842187,-0.0156094,0.00189063
4.060e-08,-0.0128437,-0.00857812,-0.0159531,0.0020625
4.080e-08,-0.012625,-0.0085,-0.0153906,0.00223438
4.100e-08,-0.0127969,-0.0099375,-0.0152031,0.00209375
4.120e-08,-0.0127813,-0.0107031,-0.0133594,0.0018125
4.140e-08,-0.0130781,-0.0122344,-0.0117969,0.00145312
4.160e-08,-0.0124063,-0.0130156,-0.0100625,0.00140625
4.180e-08,-0.0127813,-0.0139687,-0.0085625,0.0009375
4.200e-08,-0.0127344,-0.0143594,-0.0068125,0.000421875
4.220e-08,-0.0121562,-0.0142812,-0.00573438,3.125e-05
4.240e-08,-0.01175,-0.0141406,-0.00428125,-0.00015625
4.260e-08,-0.0112187,-0.0131719,-0.00279687,0.000453125
4.280e-08,-0.0114219,-0.0137812,-0.00260937,-0.00040625
4.300e-08,-0.0110625,-0.0127031,-0.00157812,0.00015625
4.320e-08,-0.0111406,-0.0123437,-0.001125,0.000609375
4.340e-08,-0.0111094,-0.0117656,-0.00078125,0.001625
4.360e-08,-0.0113594,-0.0114844,-0.0010625,0.00220313
4.380e-08,-0.0115781,-0.0114219,-0.00203125,0.00279688
4.400e-08,-0.0114687,-0.0110312,-0.00267187,0.00392188
4.420e-08,-0.0125469,-0.0110938,-0.00429687,0.00373438
4.440e-08,-0.0125469,-0.0100625,-0.00571875,0.00432813
4.460e-08,-0.0129687,-0.0105781,-0.0079375,0.00353125
4.480e-08,-0.0129531,-0.0098125,-0.00960937,0.00378125
4.500e-08,-0.0129219,-0.00935938,-0.0114063,0.00376562
4.520e-08,-0.0127656,-0.00960937,-0.013,0.00326562
4.540e-08,-0.0120156,-0.00854688,-0.0135938,0.00307813
4.560e-08,-0.0123125,-0.0089375,-0.0143281,0.00310938
4.580e-08,-0.0119687,-0.00890625,-0.0147656,0.003
4.600e-08,-0.0120781,-0.00898437,-0.0142969,0.00326562
4.620e-08,-0.0121406,-0.00828125,-0.0124375,0.00445313
4.640e-08,-0.0130938,-0.00854688,-0.0114219,0.0040625
4.660e-08,-0.0133437,-0.00795313,-0.0100156,0.00432813
4.680e-08,-0.013375,-0.00746875,-0.00904688,0.00421875
4.700e-08,-0.0132813,-0.00673438,-0.00779687,0.00475
4.720e-08,-0.013125,-0.00596875,-0.005875,0.00567187
4.740e-08,-0.0130312,-0.006375,-0.00510937,0.00592188
4.760e-08,-0.0127813,-0.00540625,-0.00465625,0.00615625
4.780e-08,-0.0123906,-0.00553125,-0.00407812,0.00651563
4.800e-08,-0.011625,-0.00575,-0.00395313,0.00610938
4.820e-08,-0.0114219,-0.00696875,-0.0036875,0.00629688
4.840e-08,-0.0109375,-0.00710937,-0.00401562,0.00671875
4.860e-08,-0.0105469,-0.00842187,-0.00429687,0.00620313
4.880e-08,-0.0102813,-0.00896875,-0.00467187,0.00584375
4.900e-08,-0.00976562,-0.009125,-0.00478125,0.00535937
4.920e-08,-0.0110938,-0.0100469,-0.00607812,0.00428125
4.940e-08,-0.0105312,-0.0094375,-0.00620312,0.00401563
4.960e-08,-0.0109063,-0.00934375,-0.00696875,0.00334375
4.980e-08,-0.0107813,-0.00876562,-0.00704688,0.00335937
5.000e-08,-0.0109687,-0.00826562,-0.00764063,0.003375
5.020e-08,-0.011125,-0.00760937,-0.00853125,0.00328125
5.040e-08,-0.011375,-0.007,-0.008125,0.00396875
5.060e-08,-0.012,-0.00701562,-0.00901562,0.00426562
5.080e-08,-0.0122813,-0.00648437,-0.00901562,0.00548438
5.100e-08,-0.0133594,-0.00684375,-0.0100469,0.0059375
5.120e-08,-0.0138125,-0.006375,-0.0102812,0.00598438
5.140e-08,-0.0143594,-0.00621875,-0.0103906,0.00592188
5.160e-08,-0.0150938,-0.00609375,-0.0109063,0.0060625
5.180e-08,-0.015125,-0.00595313,-0.0111562,0.00590625
5.200e-08,-0.0147969,-0.00628125,-0.0109531,0.00495313
5.220e-08,-0.01475,-0.00703125,-0.0110312,0.0041875
5.240e-08,-0.0141875,-0.00695313,-0.0101719,0.0036875
5.260e-08,-0.0126562,-0.00739062,-0.0083125,0.00417187
5.280e-08,-0.0129844,-0.00878125,-0.00751562,0.0028125
5.300e-08,-0.012,-0.0095625,-0.00635938,0.00229688
5.320e-08,-0.0113594,-0.0101406,-0.00578125,0.00201563
5.340e-08,-0.0107344,-0.0109375,-0.00503125,0.00184375
5.360e-08,-0.0101719,-0.0116562,-0.00435937,0.00178125
5.380e-08,-0.0107344,-0.0120625,-0.00420312,0.0014375
5.400e-08,-0.0104375,-0.0123437,-0.00415625,0.00117188
5.420e-08,-0.00982813,-0.0122344,-0.00446875,0.00121875
5.440e-08,-0.0103437,-0.011875,-0.00475,0.00135937
5.460e-08,-0.010375,-0.0110625,-0.0053125,0.0011875
5.480e-08,-0.0102813,-0.0103281,-0.00609375,0.0011875
5.500e-08,-0.0104531,-0.0099375,-0.00642187,0.0015
5.520e-08,-0.0110938,-0.00929687,-0.00710937,0.00189063
5.540e-08,-0.0109219,-0.00875,-0.00698437,0.00260938
5.560e-08,-0.0117188,-0.0100312,-0.007875,0.002625
5.580e-08,-0.0123437,-0.0100469,-0.008125,0.00309375
5.600e-08,-0.0126094,-0.0103125,-0.00835938,0.002875
5.620e-08,-0.0132031,-0.01075,-0.0085,0.00275
5.640e-08,-0.013375,-0.0109219,-0.0084375,0.0020625
5.660e-08,-0.0141562,-0.0116875,-0.008875,0.001375
5.680e-08,-0.0139687,-0.0118906,-0.00889062,0.001125
5.700e-08,-0.0145469,-0.0122969,-0.00904688,-7.8125e-05
5.720e-08,-0.0139063,-0.0123281,-0.0085625,-0.00015625
5.740e-08,-0.014625,-0.0129219,-0.00878125,-0.001125
5.760e-08,-0.0142656,-0.0129687,-0.00884375,-0.00059375
5.780e-08,-0.0141719,-0.0132344,-0.00842187,-0.00075
5.800e-08,-0.0141875,-0.0135938,-0.00848437,-0.000609375
5.820e-08,-0.0137656,-0.0127969,-0.00807812,0.000125
5.840e-08,-0.0133906,-0.0134531,-0.00873437,0.000421875
5.860e-08,-0.0131875,-0.0136406,-0.008,4.6875e-05
5.880e-08,-0.012375,-0.012875,-0.00789062,0.00107813
5.900e-08,-0.0117344,-0.0122188,-0.00757812,0.00173438
5.920e-08,-0.0111406,-0.0129375,-0.00725,0.0013125
5.940e-08,-0.0100781,-0.0125938,-0.00739062,0.00184375
5.960e-08,-0.0099375,-0.0118906,-0.0069375,0.00182813
5.980e-08,-0.0094375,-0.0116094,-0.00654688,0.002
6.000e-08,-0.00903125,-0.0109375,-0.00629687,0.0020625
6.020e-08,-0.00915625,-0.0115156,-0.00679687,0.00198438
6.040e-08,-0.00907812,-0.0114687,-0.0065625,0.00175
6.060e-08,-0.009625,-0.0119219,-0.00634375,0.00176562
6.080e-08,-0.00995313,-0.0121562,-0.00648437,0.00148438
6.100e-08,-0.0110469,-0.0125312,-0.00696875,0.00107813
6.120e-08,-0.011125,-0.0124375,-0.00665625,0.00104688
6.140e-08,-0.0122813,-0.0125781,-0.00771875,0.00104688
6.160e-08,-0.0126562,-0.0122344,-0.00757812,0.001
6.180e-08,-0.01275,-0.0115781,-0.00746875,0.00117188
6.200e-08,-0.0144531,-0.0114687,-0.00782812,0.000578125
6.220e-08,-0.0142656,-0.0107969,-0.00779687,0.00139063
6.240e-08,-0.0149219,-0.0109844,-0.0076875,0.00189063
6.260e-08,-0.0147031,-0.0104219,-0.0075625,0.00248438
6.280e-08,-0.01475,-0.00940625,-0.0075625,0.002625
6.300e-08,-0.015,-0.00990625,-0.00767187,0.00292188
6.320e-08,-0.0145625,-0.00948437,-0.0078125,0.0036875
6.340e-08,-0.0142031,-0.009625,-0.00821875,0.00390625
6.360e-08,-0.0130938,-0.0090625,-0.00814063,0.004375
6.380e-08,-0.0130469,-0.009875,-0.00853125,0.0041875
6.400e-08,-0.0122344,-0.0096875,-0.00901562,0.00434375
6.420e-08,-0.0116406,-0.00960937,-0.00896875,0.0040625
6.440e-08,-0.0111094,-0.00967187,-0.00920312,0.00396875
6.460e-08,-0.0106875,-0.00885938,-0.0083125,0.0040625
6.480e-08,-0.01075,-0.00934375,-0.00851562,0.003875
6.500e-08,-0.0110312,-0.00945313,-0.00773438,0.00339063
6.520e-08,-0.0107969,-0.0090625,-0.00745313,0.00373438
6.540e-08,-0.0102031,-0.00854688,-0.0065625,0.00454688
6.560e-08,-0.0110938,-0.00917187,-0.00665625,0.00428125
6.580e-08,-0.0114219,-0.008875,-0.00665625,0.00439063
6.600e-08,-0.0120312,-0.00885938,-0.0068125,0.00415625
6.620e-08,-0.0121406,-0.0089375,-0.00690625,0.00432813
6.640e-08,-0.0122031,-0.00879687,-0.00675,0.0045625
6.660e-08,-0.0126719,-0.008375,-0.007625,0.00378125
6.680e-08,-0.0126406,-0.008375,-0.00742187,0.00432813
6.700e-08,-0.0126562,-0.00826562,-0.007,0.004625
6.720e-08,-0.0125312,-0.00792187,-0.007625,0.00504688
6.740e-08,-0.012875,-0.00757812,-0.00746875,0.00503125
6.760e-08,-0.013,-0.00673438,-0.0070625,0.00495313
6.780e-08,-0.0125938,-0.007375,-0.00721875,0.00539063
6.800e-08,-0.0125938,-0.00717187,-0.00729687,0.00542188
6.820e-08,-0.0124219,-0.00673438,-0.00654688,0.0054375
6.840e-08,-0.0130312,-0.007375,-0.00748437,0.00478125
6.860e-08,-0.0126094,-0.0071875,-0.00690625,0.005
6.880e-08,-0.0129219,-0.00729687,-0.00728125,0.00417187
6.900e-08,-0.0129531,-0.0074375,-0.0070625,0.00470313
6.920e-08,-0.0127656,-0.00745313,-0.00767187,0.0041875
6.940e-08,-0.0130625,-0.0076875,-0.00771875,0.00385937
6.960e-08,-0.0127969,-0.00779687,-0.00796875,0.00390625
6.980e-08,-0.0128281,-0.00823438,-0.00825,0.00370313
7.000e-08,-0.0124844,-0.008125,-0.00810937,0.00420313
7.020e-08,-0.0124375,-0.00860937,-0.009,0.00335937
7.040e-08,-0.0124375,-0.008875,-0.0089375,0.00376562
7.060e-08,-0.0119531,-0.00946875,-0.00934375,0.00371875
7.080e-08,-0.011625,-0.00984375,-0.0095625,0.00339063
7.100e-08,-0.0119687,-0.00951562,-0.00871875,0.00359375
7.120e-08,-0.0113437,-0.0100156,-0.00909375,0.00309375
7.140e-08,-0.0116562,-0.0104375,-0.00870312,0.002375
7.160e-08,-0.0111719,-0.00996875,-0.00846875,0.00289063
7.180e-08,-0.0107344,-0.0091875,-0.00810937,0.00242188
7.200e-08,-0.0112031,-0.00942187,-0.00765625,0.00232813
7.220e-08,-0.0115938,-0.00939062,-0.00698437,0.00207813
7.240e-08,-0.0116719,-0.009625,-0.00723438,0.0020625
7.260e-08,-0.0120312,-0.00917187,-0.00682812,0.00207813
7.280e-08,-0.0119063,-0.00878125,-0.0059375,0.0025
7.300e-08,-0.0124687,-0.00915625,-0.0065,0.0021875
7.320e-08,-0.013,-0.00925,-0.00626562,0.002375
7.340e-08,-0.01325,-0.00939062,-0.00559375,0.0028125
7.360e-08,-0.0134063,-0.0093125,-0.006,0.00220313
7.380e-08,-0.0140156,-0.00971875,-0.0061875,0.0023125
7.400e-08,-0.014,-0.00976562,-0.00635938,0.00239063
7.420e-08,-0.0141875,-0.0101875,-0.00723438,0.002
7.440e-08,-0.0136562,-0.0102656,-0.0075625,0.00185937
7.460e-08,-0.0134687,-0.0104687,-0.00748437,0.00185937
7.480e-08,-0.01375,-0.0115312,-0.00854688,0.00135937
7.500e-08,-0.0128281,-0.0119219,-0.00851562,0.00145312
7.520e-08,-0.0123281,-0.0120625,-0.00864063,0.00125
7.540e-08,-0.0118125,-0.0124219,-0.00901562,0.00139063
7.560e-08,-0.01125,-0.0124375,-0.00876562,0.00153125
7.580e-08,-0.011125,-0.0127969,-0.00940625,0.000859375
7.600e-08,-0.0107344,-0.0124375,-0.00885938,0.000890625
7.620e-08,-0.0109687,-0.0128281,-0.00903125,0.0005625
7.640e-08,-0.0110156,-0.0126094,-0.00860937,0.00104688
7.660e-08,-0.011375,-0.0126406,-0.008625,0.00065625
7.680e-08,-0.0113125,-0.0126094,-0.00826562,0.000765625
7.700e-08,-0.0116875,-0.0123437,-0.00779687,0.00101563
7.720e-08,-0.0123281,-0.0120938,-0.00704688,0.00103125
7.740e-08,-0.0118906,-0.0119375,-0.00717187,0.00153125
7.760e-08,-0.0127813,-0.0119687,-0.007,0.00109375
7.780e-08,-0.0128906,-0.012,-0.007375,0.0015
7.800e-08,-0.0129375,-0.0117656,-0.00670312,0.0014375
7.820e-08,-0.0124531,-0.0121094,-0.00623438,0.00157813
7.840e-08,-0.0131562,-0.0119219,-0.00634375,0.00145312
7.860e-08,-0.0133281,-0.0117656,-0.00610937,0.00173438
7.880e-08,-0.0134219,-0.012,-0.00676562,0.00165625
7.900e-08,-0.0130625,-0.0116562,-0.00698437,0.00176562
7.920e-08,-0.0123437,-0.0114375,-0.0066875,0.00182813
7.940e-08,-0.0124687,-0.0117344,-0.0075625,0.00195312
7.960e-08,-0.0126094,-0.011125,-0.0073125,0.00165625
7.980e-08,-0.0120781,-0.0106875,-0.00707812,0.0019375
8.000e-08,-0.0119219,-0.0105156,-0.00796875,0.00204688
8.020e-08,-0.0117031,-0.0108594,-0.00760937,0.00217187
8.040e-08,-0.0117969,-0.0105625,-0.00778125,0.00214063
8.060e-08,-0.0119063,-0.01075,-0.00809375,0.002
8.080e-08,-0.0119687,-0.0105938,-0.00809375,0.0020625
8.100e-08,-0.0119844,-0.0104531,-0.0079375,0.00257813
8.120e-08,-0.0119687,-0.0111406,-0.00842187,0.0024375
8.140e-08,-0.012125,-0.0107969,-0.008375,0.0025
8.160e-08,-0.012375,-0.0112812,-0.00834375,0.00232813
8.180e-08,-0.0123437,-0.0107031,-0.00829687,0.00317187
8.200e-08,-0.0123906,-0.0102969,-0.00815625,0.00315625
8.220e-08,-0.0125625,-0.0109687,-0.00846875,0.00284375
8.240e-08,-0.0121875,-0.0103281,-0.007625,0.00321875
8.260e-08,-0.0123281,-0.010375,-0.00795313,0.00310938
8.280e-08,-0.01225,-0.00960937,-0.00784375,0.00360938
8.300e-08,-0.0127031,-0.00989062,-0.00798437,0.00315625
8.320e-08,-0.0126094,-0.00946875,-0.00764063,0.00360938
8.340e-08,-0.0125781,-0.00957812,-0.00790625,0.00364063
8.360e-08,-0.0129844,-0.0095,-0.00801562,0.00334375
8.380e-08,-0.0122188,-0.00854688,-0.00803125,0.003875
8.400e-08,-0.0129375,-0.00885938,-0.00784375,0.00375
8.420e-08,-0.0129844,-0.00829687,-0.00773438,0.00351563
8.440e-08,-0.0127813,-0.00796875,-0.00710937,0.00373438
8.460e-08,-0.0124531,-0.00760937,-0.0071875,0.00482813
8.480e-08,-0.0131094,-0.007625,-0.007375,0.00476562
8.500e-08,-0.0127031,-0.0075,-0.00732812,0.00475
8.520e-08,-0.0128906,-0.00776562,-0.00771875,0.00453125
8.540e-08,-0.0128906,-0.00803125,-0.00767187,0.0045625
8.560e-08,-0.0125625,-0.00753125,-0.00728125,0.005
8.580e-08,-0.0130469,-0.0078125,-0.0078125,0.00446875
8.600e-08,-0.0128125,-0.00796875,-0.007875,0.00459375
8.620e-08,-0.0124687,-0.00828125,-0.00710937,0.0044375
8.640e-08,-0.0121875,-0.00828125,-0.00782812,0.00395313
8.660e-08,-0.0126562,-0.00832812,-0.0080625,0.00409375
8.680e-08,-0.0120469,-0.00867187,-0.00809375,0.00407813
8.700e-08,-0.0118281,-0.008625,-0.00790625,0.00353125
8.720e-08,-0.011875,-0.00878125,-0.00775,0.00390625
8.740e-08,-0.0115312,-0.00870312,-0.00751562,0.00415625
8.760e-08,-0.0114687,-0.00859375,-0.00784375,0.00315625
8.780e-08,-0.0113906,-0.00854688,-0.00795313,0.0036875
8.800e-08,-0.0114375,-0.00854688,-0.00779687,0.00309375
8.820e-08,-0.0118906,-0.008625,-0.00710937,0.0035625
8.840e-08,-0.0120156,-0.00853125,-0.00764063,0.00414063
8.860e-08,-0.0123594,-0.00910937,-0.00767187,0.00334375
8.880e-08,-0.0121406,-0.00867187,-0.007625,0.003875
8.900e-08,-0.0125156,-0.00871875,-0.00775,0.00390625
8.920e-08,-0.0125,-0.00846875,-0.00745313,0.00401563
8.940e-08,-0.0130312,-0.00864063,-0.00782812,0.00310938
8.960e-08,-0.0132656,-0.00851562,-0.00740625,0.00367187
8.980e-08,-0.0135781,-0.00854688,-0.007875,0.00354688
9.000e-08,-0.0137656,-0.00926562,-0.007875,0.00317187
9.020e-08,-0.0129219,-0.00853125,-0.00779687,0.00317187
9.040e-08,-0.0133281,-0.00914063,-0.00785938,0.00271875
9.060e-08,-0.0138906,-0.00926562,-0.00807812,0.002375
9.080e-08,-0.0131875,-0.00914063,-0.00796875,0.00246875
9.100e-08,-0.0127188,-0.00879687,-0.007875,0.00257813
9.120e-08,-0.013125,-0.0094375,-0.00764063,0.002125
9.140e-08,-0.0125781,-0.00954688,-0.00754688,0.00246875
9.160e-08,-0.0125938,-0.00990625,-0.00770312,0.00221875
9.180e-08,-0.0121094,-0.0100469,-0.00776562,0.00203125
9.200e-08,-0.0119219,-0.009625,-0.00714063,0.00226562
9.220e-08,-0.0119531,-0.0102656,-0.00776562,0.00201563
9.240e-08,-0.0116875,-0.0103281,-0.0074375,0.00201563
9.260e-08,-0.0111094,-0.0100156,-0.00692187,0.00207813
9.280e-08,-0.0116719,-0.0105469,-0.00739062,0.001875
9.300e-08,-0.0113437,-0.0109844,-0.0070625,0.00214063
9.320e-08,-0.0114844,-0.0110156,-0.00685938,0.0016875
9.340e-08,-0.0117656,-0.0119844,-0.00754688,0.00179688
9.360e-08,-0.0119531,-0.0117344,-0.00742187,0.00182813
9.380e-08,-0.0122813,-0.0112031,-0.00728125,0.00173438
9.400e-08,-0.0125625,-0.0117031,-0.00760937,0.0013125
9.420e-08,-0.0124063,-0.0118594,-0.00779687,0.00132813
9.440e-08,-0.0127813,-0.01175,-0.00809375,0.001625
9.460e-08,-0.012625,-0.0116406,-0.00807812,0.0015625
9.480e-08,-0.0128281,-0.011625,-0.00789062,0.00164063
9.500e-08,-0.0130938,-0.0115781,-0.00807812,0.00096875
9.520e-08,-0.0129375,-0.0111562,-0.00807812,0.00151563
9.540e-08,-0.0132031,-0.0112187,-0.00820312,0.00115625
9.560e-08,-0.0128281,-0.0111875,-0.00796875,0.00146875
9.580e-08,-0.0132344,-0.0112812,-0.00782812,0.00129688
9.600e-08,-0.0131094,-0.0110469,-0.007625,0.0014375
9.620e-08,-0.0131719,-0.0115,-0.00785938,0.00167188
9.640e-08,-0.0134531,-0.0111719,-0.00779687,0.0015625
9.660e-08,-0.0125781,-0.0114844,-0.00771875,0.00198438
9.680e-08,-0.0130156,-0.0115781,-0.00776562,0.00195312
9.700e-08,-0.0126094,-0.0118125,-0.00789062,0.00198438
9.720e-08,-0.0124063,-0.0112969,-0.00746875,0.00203125
9.740e-08,-0.0122344,-0.0115312,-0.00720312,0.00207813
9.760e-08,-0.012375,-0.0116719,-0.00771875,0.0021875
9.780e-08,-0.012125,-0.0114375,-0.00748437,0.00221875
9.800e-08,-0.012,-0.0118125,-0.00728125,0.00198438
9.820e-08,-0.0120781,-0.0117969,-0.00770312,0.00185937
9.840e-08,-0.0119687,-0.0109063,-0.00709375,0.00173438
9.860e-08,-0.0121562,-0.0115781,-0.00765625,0.00170313
9.880e-08,-0.0118906,-0.01125,-0.00742187,0.00164063
9.900e-08,-0.0121406,-0.0106719,-0.00696875,0.00182813
9.920e-08,-0.0119844,-0.0115156,-0.00790625,0.00185937
9.940e-08,-0.0117813,-0.0107656,-0.00785938,0.002
9.960e-08,-0.0122656,-0.0105156,-0.00760937,0.00245313
9.980e-08,-0.0119687,-0.0108281,-0.00782812,0.00220313
1.000e-07,-0.0121719,-0.0101875,-0.00753125,0.00242188
1.002e-07,-0.01225,-0.0099375,-0.00734375,0.00290625
1.004e-07,-0.0126562,-0.0104063,-0.00779687,0.00259375
1.006e-07,-0.0125156,-0.01,-0.00773438,0.003125
1.008e-07,-0.0124687,-0.0102812,-0.00792187,0.00292188
1.010e-07,-0.0124375,-0.00992187,-0.00798437,0.00345313
1.012e-07,-0.0125938,-0.00954688,-0.00782812,0.00384375
1.014e-07,-0.0130781,-0.0098125,-0.00779687,0.003375
1.016e-07,-0.0129063,-0.0093125,-0.00785938,0.00357813
1.018e-07,-0.0131406,-0.0095625,-0.00832812,0.00375
1.020e-07,-0.0125781,-0.00904688,-0.00815625,0.003875
1.022e-07,-0.0128906,-0.00910937,-0.0083125,0.00334375
1.024e-07,-0.0130938,-0.00915625,-0.00820312,0.00382813
1.026e-07,-0.0130938,-0.0090625,-0.00789062,0.0038125
1.028e-07,-0.0134219,-0.00932812,-0.00790625,0.0036875
1.030e-07,-0.0124687,-0.00854688,-0.00790625,0.00385937
1.032e-07,-0.0129219,-0.00889062,-0.00773438,0.00325
1.034e-07,-0.0127344,-0.00865625,-0.00782812,0.00290625
1.036e-07,-0.0124844,-0.00876562,-0.007375,0.00317187
1.038e-07,-0.0121719,-0.00840625,-0.00732812,0.00414063
1.040e-07,-0.012,-0.00882812,-0.0074375,0.00390625
1.042e-07,-0.0117656,-0.008625,-0.00751562,0.00426562
1.044e-07,-0.0118125,-0.00879687,-0.00746875,0.00367187
1.046e-07,-0.0116875,-0.00864063,-0.00759375,0.00367187
1.048e-07,-0.0112187,-0.00835938,-0.007,0.00460938
1.050e-07,-0.0115156,-0.0090625,-0.00764063,0.0039375
1.052e-07,-0.011625,-0.0089375,-0.00760937,0.00404688
1.054e-07,-0.0111094,-0.00917187,-0.00704688,0.00429688
1.056e-07,-0.011875,-0.00865625,-0.00771875,0.00398438
1.058e-07,-0.0118125,-0.00878125,-0.00775,0.00378125
1.060e-07,-0.0119531,-0.00879687,-0.0076875,0.004
1.062e-07,-0.0125312,-0.00873438,-0.0081875,0.00375
1.064e-07,-0.0125781,-0.00879687,-0.00796875,0.00376562
1.066e-07,-0.012625,-0.00846875,-0.00759375,0.00409375
1.068e-07,-0.0136406,-0.00865625,-0.00771875,0.00314063
1.070e-07,-0.01275,-0.00804688,-0.008,0.00353125
1.072e-07,-0.0134687,-0.00829687,-0.00785938,0.00346875
1.074e-07,-0.01325,-0.00814063,-0.00767187,0.00335937
1.076e-07,-0.0132031,-0.00840625,-0.00792187,0.00373438
1.078e-07,-0.0138281,-0.00892187,-0.00803125,0.00282813
1.080e-07,-0.0133125,-0.0081875,-0.00765625,0.0031875
1.082e-07,-0.013375,-0.00885938,-0.00828125,0.00284375
1.084e-07,-0.0126406,-0.00865625,-0.00753125,0.00329688
1.086e-07,-0.013,-0.00940625,-0.00809375,0.00275
1.088e-07,-0.0129844,-0.00964063,-0.00775,0.00325
1.090e-07,-0.0125469,-0.00953125,-0.00775,0.0025625
1.092e-07,-0.0123281,-0.00998437,-0.00776562,0.00270313
1.094e-07,-0.012125,-0.00945313,-0.0080625,0.00259375
1.096e-07,-0.0119531,-0.00998437,-0.00757812,0.00223438
1.098e-07,-0.0119687,-0.0107812,-0.00782812,0.00225
1.100e-07,-0.0116094,-0.0101875,-0.0071875,0.0024375
1.102e-07,-0.0113906,-0.00953125,-0.00732812,0.0023125
1.104e-07,-0.0117031,-0.00995313,-0.00734375,0.00229688
1.106e-07,-0.0115469,-0.00979687,-0.00746875,0.00242188
1.108e-07,-0.01175,-0.0100469,-0.0075625,0.00226562
1.110e-07,-0.0119063,-0.0103906,-0.00760937,0.00209375
1.112e-07,-0.0121562,-0.00973438,-0.00723438,0.00229688
1.114e-07,-0.0122969,-0.0101875,-0.00757812,0.00203125
1.116e-07,-0.0126094,-0.0105,-0.00739062,0.00189063
1.118e-07,-0.0127188,-0.00979687,-0.006875,0.00185937
1.120e-07,-0.0124531,-0.01025,-0.00779687,0.00195312
1.122e-07,-0.0129063,-0.010375,-0.0073125,0.001875
1.124e-07,-0.0131719,-0.0104687,-0.00748437,0.0016875
1.126e-07,-0.0128594,-0.0108281,-0.00804688,0.00179688
1.128e-07,-0.012875,-0.0109375,-0.0078125,0.00184375
1.130e-07,-0.0129063,-0.0106719,-0.00803125,0.00171875
1.132e-07,-0.0134687,-0.0112969,-0.00832812,0.00126562
1.134e-07,-0.012875,-0.0110156,-0.00823437,0.00164063
1.136e-07,-0.0132344,-0.0112656,-0.00815625,0.001625
1.138e-07,-0.0126406,-0.0112812,-0.00764063,0.00178125
1.140e-07,-0.0123594,-0.0115,-0.0079375,0.00182813
1.142e-07,-0.01275,-0.0117344,-0.00770312,0.00142188
1.144e-07,-0.0123906,-0.0114375,-0.00770312,0.00192188
1.146e-07,-0.0125,-0.0118281,-0.00770312,0.00179688
1.148e-07,-0.0120938,-0.0111406,-0.00771875,0.0019375
1.150e-07,-0.0121094,-0.0115625,-0.00796875,0.00167188
1.152e-07,-0.0124844,-0.0111562,-0.0075,0.00170313
1.154e-07,-0.0122656,-0.0112812,-0.00770312,0.00173438
1.156e-07,-0.0122969,-0.0113281,-0.00760937,0.00182813
1.158e-07,-0.0121094,-0.0115,-0.00779687,0.00192188
1.160e-07,-0.0123125,-0.0114063,-0.00776562,0.0016875
1.162e-07,-0.0125,-0.0116719,-0.00770312,0.00190625
1.164e-07,-0.0121875,-0.0108906,-0.00725,0.00203125
1.166e-07,-0.0120312,-0.0105781,-0.00759375,0.00192188
1.168e-07,-0.012,-0.01075,-0.00779687,0.001875
1.170e-07,-0.0120312,-0.0109531,-0.007625,0.00204688
1.172e-07,-0.0124844,-0.01075,-0.00746875,0.00209375
1.174e-07,-0.012125,-0.0109063,-0.00770312,0.002
1.176e-07,-0.0123281,-0.0103594,-0.00764063,0.00235937
1.178e-07,-0.012375,-0.0109063,-0.00803125,0.002125
1.180e-07,-0.0126719,-0.0107344,-0.00807812,0.00232813
1.182e-07,-0.0127188,-0.0101719,-0.00728125,0.003
1.184e-07,-0.0124687,-0.0103437,-0.00779687,0.00245313
1.186e-07,-0.0130312,-0.0100625,-0.00778125,0.002875
1.188e-07,-0.0130781,-0.0102344,-0.00776562,0.00296875
1.190e-07,-0.0125,-0.0102969,-0.00782812,0.00260938
1.192e-07,-0.01275,-0.0100781,-0.00807812,0.00285937
1.194e-07,-0.0126562,-0.00965625,-0.00757812,0.003
1.196e-07,-0.0133281,-0.0105312,-0.00754688,0.00260938
1.198e-07,-0.0126406,-0.0100625,-0.0073125,0.00315625
1.200e-07,-0.0127969,-0.0103281,-0.00748437,0.00290625
1.202e-07,-0.0124844,-0.00979687,-0.00723438,0.00290625
1.204e-07,-0.0125156,-0.00948437,-0.00745313,0.003625
1.206e-07,-0.0126719,-0.0099375,-0.007625,0.00285937
1.208e-07,-0.0121562,-0.00964063,-0.00748437,0.00320313
1.210e-07,-0.0125625,-0.00992187,-0.00764063,0.00310938
1.212e-07,-0.0120938,-0.0090625,-0.00748437,0.00342188
1.214e-07,-0.0121094,-0.00935938,-0.00765625,0.00296875
1.216e-07,-0.0120781,-0.00915625,-0.00757812,0.00335937
1.218e-07,-0.0120625,-0.00953125,-0.00785938,0.00351563
1.220e-07,-0.0119219,-0.00954688,-0.00759375,0.00348438
1.222e-07,-0.0119063,-0.00864063,-0.0076875,0.00396875
1.224e-07,-0.011875,-0.00909375,-0.00759375,0.00353125
1.226e-07,-0.0120312,-0.0085625,-0.007875,0.00304688
1.228e-07,-0.0121719,-0.00871875,-0.00735938,0.003625
1.230e-07,-0.0119531,-0.00825,-0.00759375,0.00429688
1.232e-07,-0.0126875,-0.00895313,-0.00784375,0.00357813
1.234e-07,-0.0124844,-0.00864063,-0.0075,0.00403125
1.236e-07,-0.0129531,-0.00898437,-0.00779687,0.00332813
1.238e-07,-0.01275,-0.0086875,-0.007875,0.0035625
1.240e-07,-0.0127188,-0.0083125,-0.00803125,0.00398438
1.242e-07,-0.0129844,-0.00859375,-0.00796875,0.00334375
1.244e-07,-0.0132188,-0.008625,-0.0079375,0.00328125
1.246e-07,-0.0130312,-0.00870312,-0.00735938,0.00351563
1.248e-07,-0.0130312,-0.0085625,-0.00775,0.00346875
1.250e-07,-0.0130625,-0.00882812,-0.00734375,0.00371875
1.252e-07,-0.0133906,-0.009125,-0.00764063,0.0035
1.254e-07,-0.0127344,-0.0086875,-0.0078125,0.0031875
1.256e-07,-0.0125312,-0.00884375,-0.0079375,0.00321875
1.258e-07,-0.0124687,-0.00884375,-0.00759375,0.0033125
1.260e-07,-0.0125156,-0.0095,-0.00765625,0.00279688
1.262e-07,-0.0122188,-0.00884375,-0.0075625,0.0033125
1.264e-07,-0.0121719,-0.00934375,-0.00785938,0.002875
1.266e-07,-0.0115469,-0.00914063,-0.00770312,0.00325
1.268e-07,-0.0119375,-0.008875,-0.0075625,0.00345313
1.270e-07,-0.0124219,-0.00964063,-0.00742187,0.00270313
1.272e-07,-0.0121406,-0.00934375,-0.00771875,0.00303125
1.274e-07,-0.0120312,-0.0095625,-0.00773438,0.00282813
1.276e-07,-0.0120938,-0.00889062,-0.00745313,0.00284375
1.278e-07,-0.01225,-0.00959375,-0.00785938,0.00245313
1.280e-07,-0.0125312,-0.00960937,-0.008,0.00289063
1.282e-07,-0.0127031,-0.00990625,-0.008125,0.00267187
1.284e-07,-0.0128281,-0.0099375,-0.00796875,0.00267187
1.286e-07,-0.0124375,-0.0091875,-0.00759375,0.002375
1.288e-07,-0.0129063,-0.00985938,-0.00764063,0.00228125
1.290e-07,-0.012875,-0.0101562,-0.008,0.00207813
1.292e-07,-0.0126094,-0.00928125,-0.0076875,0.00248438
1.294e-07,-0.0121719,-0.009125,-0.00776562,0.002125
1.296e-07,-0.0127813,-0.0095625,-0.0078125,0.002375
1.298e-07,-0.0125469,-0.00960937,-0.00784375,0.00239063
1.300e-07,-0.0129844,-0.00996875,-0.00803125,0.00220313
1.302e-07,-0.01275,-0.0102187,-0.00784375,0.002125
1.304e-07,-0.0122813,-0.00964063,-0.00771875,0.00195312
1.306e-07,-0.0124531,-0.0105938,-0.00771875,0.001875
1.308e-07,-0.0124219,-0.010625,-0.00767187,0.00175
1.310e-07,-0.0120625,-0.0101875,-0.00703125,0.0024375
1.312e-07,-0.0122344,-0.0106719,-0.00770312,0.00196875
1.314e-07,-0.0124531,-0.0109219,-0.00740625,0.00195312
1.316e-07,-0.0122656,-0.0106406,-0.00751562,0.0019375
1.318e-07,-0.0122969,-0.01125,-0.007875,0.00190625
1.320e-07,-0.0124219,-0.0113437,-0.00754688,0.00190625
1.322e-07,-0.012125,-0.0113437,-0.0073125,0.00195312
1.324e-07,-0.0125625,-0.0115938,-0.008,0.00176562
1.326e-07,-0.0123594,-0.01125,-0.00778125,0.00178125
1.328e-07,-0.0123594,-0.0114844,-0.00773438,0.00164063
1.330e-07,-0.0123125,-0.0115938,-0.00760937,0.00221875
1.332e-07,-0.01225,-0.0112344,-0.00792187,0.00176562
1.334e-07,-0.01275,-0.0112344,-0.00773438,0.00164063
1.336e-07,-0.0122344,-0.0106719,-0.007625,0.00185937
1.338e-07,-0.0123125,-0.0108125,-0.00789062,0.001875
1.340e-07,-0.0122656,-0.0103906,-0.00776562,0.002
1.342e-07,-0.0127813,-0.0108906,-0.007875,0.0021875
1.344e-07,-0.0127656,-0.0108125,-0.00771875,0.0020625
1.346e-07,-0.0126094,-0.0104063,-0.008,0.0019375
1.348e-07,-0.0127813,-0.0103281,-0.00776562,0.00204688
1.350e-07,-0.0124063,-0.0101562,-0.00771875,0.00210938
1.352e-07,-0.0126562,-0.0107969,-0.00770312,0.00209375
1.354e-07,-0.0126719,-0.0109844,-0.00792187,0.00210938
1.356e-07,-0.0124531,-0.0105156,-0.00723438,0.00226562
1.358e-07,-0.0124063,-0.01025,-0.00734375,0.002125
1.360e-07,-0.01275,-0.0101562,-0.0075625,0.00235937
1.362e-07,-0.0126094,-0.0106875,-0.00771875,0.0024375
1.364e-07,-0.0129531,-0.0109063,-0.00771875,0.00229688
1.366e-07,-0.0123594,-0.0108594,-0.00757812,0.002125
1.368e-07,-0.0121562,-0.0104063,-0.00734375,0.00253125
1.370e-07,-0.0123125,-0.0111094,-0.00779687,0.0021875
1.372e-07,-0.0125938,-0.0108281,-0.00748437,0.0024375
1.374e-07,-0.0122813,-0.0106875,-0.00715625,0.00298438
1.376e-07,-0.0120781,-0.0107656,-0.00765625,0.00217187
1.378e-07,-0.0122656,-0.0104844,-0.00760937,0.0028125
1.380e-07,-0.0121562,-0.0100938,-0.00751562,0.00310938
1.382e-07,-0.0121406,-0.0101719,-0.00784375,0.002625
1.384e-07,-0.0121719,-0.0101719,-0.0076875,0.00232813
1.386e-07,-0.0121719,-0.0098125,-0.0078125,0.00315625
1.388e-07,-0.0124219,-0.0102031,-0.00779687,0.00259375
1.390e-07,-0.0123594,-0.00954688,-0.00784375,0.003125
1.392e-07,-0.0123125,-0.0100312,-0.00776562,0.002875
1.394e-07,-0.0122188,-0.00932812,-0.007875,0.00354688
1.396e-07,-0.0125781,-0.00939062,-0.008125,0.003625
1.398e-07,-0.0129375,-0.00965625,-0.00778125,0.002875
1.400e-07,-0.0125625,-0.00960937,-0.00754688,0.00353125
1.402e-07,-0.0127656,-0.0095625,-0.00817187,0.003
1.404e-07,-0.0125469,-0.008875,-0.00795313,0.0035625
1.406e-07,-0.0131406,-0.00920312,-0.00801562,0.00315625
1.408e-07,-0.0132031,-0.00934375,-0.00782812,0.0034375
1.410e-07,-0.0130312,-0.00960937,-0.00792187,0.00342188
1.412e-07,-0.0130156,-0.00946875,-0.00796875,0.0035
1.414e-07,-0.0123906,-0.00903125,-0.00804688,0.00360938
1.416e-07,-0.0128594,-0.00917187,-0.00754688,0.00304688
1.418e-07,-0.0129844,-0.00940625,-0.00778125,0.0028125
1.420e-07,-0.0125469,-0.00890625,-0.007375,0.0033125
1.422e-07,-0.0124063,-0.00898437,-0.00735938,0.00389063
1.424e-07,-0.0127344,-0.00926562,-0.00773438,0.00395313
1.426e-07,-0.0122344,-0.0093125,-0.00754688,0.00396875
1.428e-07,-0.012375,-0.00926562,-0.00751562,0.00345313
1.430e-07,-0.0120469,-0.00909375,-0.00751562,0.00365625
1.432e-07,-0.0121719,-0.008625,-0.0075,0.0036875
1.434e-07,-0.0120625,-0.00935938,-0.00767187,0.00296875
1.436e-07,-0.0120938,-0.00923438,-0.00720312,0.00296875
1.438e-07,-0.0121719,-0.00926562,-0.00690625,0.00342188
1.440e-07,-0.0122188,-0.00882812,-0.00782812,0.003125
1.442e-07,-0.0120156,-0.00917187,-0.00751562,0.00323438
1.444e-07,-0.0123594,-0.00935938,-0.00740625,0.00335937
1.446e-07,-0.0123906,-0.009,-0.00775,0.00295313
1.448e-07,-0.0125938,-0.00909375,-0.00779687,0.00295313
1.450e-07,-0.0125312,-0.00907812,-0.00742187,0.00303125
1.452e-07,-0.0130781,-0.00979687,-0.00782812,0.00267187
1.454e-07,-0.0125938,-0.00904688,-0.00803125,0.00328125
1.456e-07,-0.0124375,-0.0098125,-0.007875,0.00307813
1.458e-07,-0.0124219,-0.00914063,-0.00760937,0.00285937
1.460e-07,-0.0125469,-0.0091875,-0.00796875,0.00295313
1.462e-07,-0.0130625,-0.00942187,-0.00773438,0.002625
1.464e-07,-0.0125625,-0.00973438,-0.00775,0.00301563
1.466e-07,-0.0127188,-0.0096875,-0.00795313,0.00220313
1.468e-07,-0.012625,-0.00903125,-0.00792187,0.00248438
1.470e-07,-0.0127969,-0.00951562,-0.00771875,0.00264063
1.472e-07,-0.0124844,-0.009875,-0.00764063,0.00290625
1.474e-07,-0.012625,-0.00978125,-0.00784375,0.002375
1.476e-07,-0.0120312,-0.00990625,-0.0078125,0.00267187
1.478e-07,-0.0123906,-0.00970312,-0.00771875,0.0025625
1.480e-07,-0.0128437,-0.00998437,-0.00773438,0.00246875
1.482e-07,-0.0127344,-0.0106562,-0.00767187,0.00207813
1.484e-07,-0.0121719,-0.0102031,-0.00739062,0.0021875
1.486e-07,-0.0120156,-0.00928125,-0.00732812,0.00254688
1.488e-07,-0.0124219,-0.00982812,-0.00770312,0.00229688
1.490e-07,-0.011875,-0.0100625,-0.00754688,0.00220313
1.492e-07,-0.0124375,-0.0105469,-0.00765625,0.00209375
1.494e-07,-0.0120312,-0.0103125,-0.007875,0.00196875
1.496e-07,-0.0120625,-0.0100781,-0.00792187,0.001875
1.498e-07,-0.0123437,-0.0108906,-0.00784375,0.00190625
1.500e-07,-0.0123594,-0.0110156,-0.0079375,0.002125
1.502e-07,-0.0125,-0.0101719,-0.00709375,0.00265625
1.504e-07,-0.0123594,-0.0105,-0.00778125,0.00207813
1.506e-07,-0.0127969,-0.0108125,-0.0079375,0.00207813
1.508e-07,-0.0128281,-0.0103594,-0.00771875,0.002
1.510e-07,-0.0125312,-0.0105938,-0.007875,0.00198438
1.512e-07,-0.0126719,-0.0104063,-0.0080625,0.00190625
1.514e-07,-0.0125625,-0.010625,-0.00789062,0.00215625
1.516e-07,-0.0131875,-0.0111719,-0.00815625,0.00210938
1.518e-07,-0.0127188,-0.0107656,-0.00773438,0.00201563
1.520e-07,-0.012875,-0.0109375,-0.00798437,0.00217187
1.522e-07,-0.0124531,-0.0105625,-0.00773438,0.00214063
1.524e-07,-0.0125,-0.0102344,-0.00782812,0.002
1.526e-07,-0.013,-0.0106875,-0.0078125,0.00226562
1.528e-07,-0.0127969,-0.0106406,-0.00776562,0.00220313
1.530e-07,-0.0124375,-0.0109844,-0.0078125,0.0021875
1.532e-07,-0.0124687,-0.0105156,-0.00740625,0.00221875
1.534e-07,-0.0126406,-0.0110469,-0.00798437,0.00196875
1.536e-07,-0.0128125,-0.0106875,-0.00754688,0.00214063
1.538e-07,-0.0127031,-0.0108281,-0.00785938,0.00204688
1.540e-07,-0.0122188,-0.0107969,-0.00742187,0.0023125
1.542e-07,-0.0122813,-0.0107969,-0.00764063,0.00204688
1.544e-07,-0.0122344,-0.0108437,-0.00746875,0.00232813
1.546e-07,-0.0125156,-0.0110469,-0.0076875,0.00234375
1.548e-07,-0.0120625,-0.0107656,-0.00742187,0.00251563
1.550e-07,-0.0122344,-0.010125,-0.00748437,0.0026875
1.552e-07,-0.0125,-0.0100625,-0.00729687,0.00239063
1.554e-07,-0.0125,-0.010625,-0.0074375,0.00251563
1.556e-07,-0.0125312,-0.0107031,-0.007625,0.00228125
1.558e-07,-0.0121406,-0.0101719,-0.00789062,0.00226562
1.560e-07,-0.012125,-0.0100625,-0.00767187,0.00275
1.562e-07,-0.0123906,-0.0104844,-0.00770312,0.00240625
1.564e-07,-0.0124063,-0.010375,-0.00782812,0.00257813
1.566e-07,-0.0124219,-0.0101875,-0.0075,0.00354688
1.568e-07,-0.0123281,-0.00995313,-0.00809375,0.0025
1.570e-07,-0.01275,-0.0100781,-0.0078125,0.00282813
1.572e-07,-0.0126406,-0.00970312,-0.00759375,0.00292188
1.574e-07,-0.012375,-0.00984375,-0.00757812,0.00279688
1.576e-07,-0.0126719,-0.00945313,-0.0079375,0.00296875
1.578e-07,-0.0127813,-0.00951562,-0.00760937,0.00314063
1.580e-07,-0.0131562,-0.0101875,-0.00770312,0.00282813
1.582e-07,-0.0125312,-0.009875,-0.0079375,0.00329688
1.584e-07,-0.0125469,-0.0100312,-0.00789062,0.00289063
1.586e-07,-0.0124219,-0.00971875,-0.00771875,0.00334375
1.588e-07,-0.0125625,-0.00946875,-0.00782812,0.0035
1.590e-07,-0.0128125,-0.00965625,-0.00764063,0.0028125
1.592e-07,-0.0123281,-0.00965625,-0.00773438,0.00335937
1.594e-07,-0.012625,-0.00995313,-0.00782812,0.00285937
1.596e-07,-0.0122813,-0.009125,-0.0075,0.003625
1.598e-07,-0.0128281,-0.00957812,-0.00778125,0.00298438
1.600e-07,-0.012625,-0.00964063,-0.00745313,0.00339063
1.602e-07,-0.0123906,-0.00971875,-0.0076875,0.0035
1.604e-07,-0.0122188,-0.00967187,-0.00773438,0.00309375
1.606e-07,-0.0120156,-0.00896875,-0.00735938,0.003875
1.608e-07,-0.0125469,-0.00910937,-0.00773438,0.00301563
1.610e-07,-0.0123437,-0.0094375,-0.00770312,0.00292188
1.612e-07,-0.01225,-0.00896875,-0.00754688,0.00323438
1.614e-07,-0.0120625,-0.0086875,-0.0075625,0.00398438
1.616e-07,-0.0125625,-0.00903125,-0.00757812,0.00364063
1.618e-07,-0.0123906,-0.00921875,-0.0076875,0.00304688
1.620e-07,-0.0126094,-0.0093125,-0.00778125,0.00314063
1.622e-07,-0.0122969,-0.00910937,-0.00804688,0.00332813
1.624e-07,-0.0124531,-0.00896875,-0.00779687,0.00332813
1.626e-07,-0.0127031,-0.00915625,-0.00764063,0.00282813
1.628e-07,-0.0125781,-0.00925,-0.00776562,0.00301563
1.630e-07,-0.0128594,-0.00939062,-0.00723438,0.00345313
1.632e-07,-0.0125156,-0.00904688,-0.00795313,0.00253125
1.634e-07,-0.0126719,-0.00934375,-0.00746875,0.003
1.636e-07,-0.0124531,-0.0094375,-0.0075,0.00342188
1.638e-07,-0.0125156,-0.009375,-0.00789062,0.00253125
1.640e-07,-0.0125,-0.00907812,-0.00795313,0.00276562
1.642e-07,-0.0124687,-0.00929687,-0.00773438,0.00301563
1.644e-07,-0.0128281,-0.0101094,-0.00767187,0.00254688
1.646e-07,-0.0124375,-0.00934375,-0.0075625,0.00321875
1.648e-07,-0.0122969,-0.0100625,-0.0075625,0.00282813
1.650e-07,-0.0124063,-0.00965625,-0.00767187,0.00303125
1.652e-07,-0.0124063,-0.00940625,-0.007875,0.0029375
1.654e-07,-0.0127344,-0.00995313,-0.008,0.00242188
1.656e-07,-0.012375,-0.00970312,-0.00776562,0.00275
1.658e-07,-0.0124063,-0.00995313,-0.00784375,0.00257813
1.660e-07,-0.0123125,-0.00948437,-0.00748437,0.00260938
1.662e-07,-0.0124687,-0.00990625,-0.00759375,0.00234375
1.664e-07,-0.01275,-0.00984375,-0.00714063,0.00259375
1.666e-07,-0.0125469,-0.0100938,-0.00760937,0.00217187
1.668e-07,-0.0124219,-0.0101562,-0.0078125,0.0026875

